# Step     T (K)     E_KS (eV)    E_tot (eV)   Vol (A^3)    P (kBar)
     1   7968.48    -900.60192    -897.51202    1000.000       3.235
     2   7949.17    -900.59380    -897.51139    1000.000       3.856
     3   7922.40    -900.58230    -897.51027    1000.000       4.290
     4   7918.61    -900.58179    -897.51123    1000.000       4.442
     5   7914.85    -900.58051    -897.51141    1000.000       4.378
     6   7901.08    -900.57432    -897.51056    1000.000       4.270
     7   7910.22    -900.57714    -897.50983    1000.000       4.191
     8   7949.75    -900.59409    -897.51145    1000.000       4.218
     9   7985.44    -900.60891    -897.51244    1000.000       4.243
    10   7998.59    -900.61257    -897.51100    1000.000       4.184
    11   8005.66    -900.61451    -897.51019    1000.000       3.905
    12   7989.07    -900.60650    -897.50862    1000.000       3.486
    13   7907.69    -900.57542    -897.50910    1000.000       3.013
    14   7755.41    -900.51909    -897.51181    1000.000       2.773
    15   7524.61    -900.43137    -897.51359    1000.000       2.871
    16   7147.13    -900.28561    -897.51420    1000.000       3.411
    17   6483.58    -900.03231    -897.51820    1000.000       4.566
    18   5505.36    -899.65986    -897.52508    1000.000       5.599
    19   4346.26    -899.21080    -897.52547    1000.000       6.495
    20   3228.16    -898.76907    -897.51730    1000.000       7.087
    21   2471.70    -898.46582    -897.50738    1000.000       7.166
    22   2306.28    -898.40916    -897.51487    1000.000       6.819
    23   2639.40    -898.55222    -897.52875    1000.000       5.998
    24   3156.95    -898.75951    -897.53535    1000.000       5.007
    25   3686.01    -898.96009    -897.53078    1000.000       4.116
    26   4326.23    -899.20058    -897.52302    1000.000       3.693
    27   5218.97    -899.54398    -897.52025    1000.000       3.516
    28   6191.66    -899.93671    -897.53580    1000.000       3.918
    29   6651.58    -900.12168    -897.54243    1000.000       4.887
    30   6738.77    -900.10133    -897.48827    1000.000       5.314
    31   7340.25    -900.38631    -897.54002    1000.000       3.785
    32   7551.99    -900.46057    -897.53217    1000.000       2.185
    33   7216.90    -900.31017    -897.51171    1000.000       1.084
    34   7021.40    -900.22738    -897.50473    1000.000       0.357
    35   7260.38    -900.32475    -897.50943    1000.000       0.225
    36   7709.15    -900.51807    -897.52873    1000.000       0.897
    37   7700.59    -900.52373    -897.53771    1000.000       2.306
    38   7363.87    -900.33654    -897.48109    1000.000       3.238
    39   7675.31    -900.51283    -897.53661    1000.000       2.115
    40   7704.91    -900.51747    -897.52978    1000.000       0.866
    41   7259.83    -900.32476    -897.50965    1000.000       0.129
    42   7033.15    -900.23083    -897.50362    1000.000      -0.200
    43   7293.98    -900.33834    -897.50999    1000.000       0.106
    44   7756.32    -900.53847    -897.53084    1000.000       1.217
    45   7718.60    -900.52890    -897.53590    1000.000       3.022
    46   7428.21    -900.36164    -897.48124    1000.000       4.129
    47   7781.39    -900.55697    -897.53962    1000.000       3.130
    48   7757.83    -900.53683    -897.52862    1000.000       2.096
    49   7300.58    -900.34008    -897.50917    1000.000       1.485
    50   7103.16    -900.25864    -897.50428    1000.000       1.216
    51   7389.25    -900.37726    -897.51197    1000.000       1.501
    52   7821.79    -900.56698    -897.53396    1000.000       2.508
    53   7701.64    -900.51867    -897.53225    1000.000       4.079
    54   7446.52    -900.37103    -897.48353    1000.000       4.672
    55   7811.04    -900.56985    -897.54100    1000.000       3.210
    56   7706.64    -900.51355    -897.52519    1000.000       1.860
    57   7233.59    -900.31213    -897.50719    1000.000       0.920
    58   7064.77    -900.24299    -897.50352    1000.000       0.376
    59   7370.59    -900.37060    -897.51254    1000.000       0.472
    60   7759.79    -900.54451    -897.53553    1000.000       1.378
    61   7552.42    -900.45464    -897.52607    1000.000       2.862
    62   7340.94    -900.33384    -897.48727    1000.000       3.229
    63   7705.43    -900.52881    -897.54092    1000.000       1.760
    64   7536.11    -900.44402    -897.52178    1000.000       0.605
    65   7081.55    -900.25108    -897.50511    1000.000      -0.097
    66   6985.39    -900.21130    -897.50261    1000.000      -0.337
    67   7362.58    -900.36790    -897.51295    1000.000       0.114
    68   7764.93    -900.54743    -897.53646    1000.000       1.406
    69   7541.73    -900.44304    -897.51862    1000.000       3.208
    70   7437.13    -900.37641    -897.49255    1000.000       3.657
    71   7827.52    -900.57541    -897.54017    1000.000       2.425
    72   7618.56    -900.47304    -897.51883    1000.000       1.570
    73   7182.94    -900.28897    -897.50367    1000.000       1.090
    74   7130.23    -900.26729    -897.50244    1000.000       1.026
    75   7525.77    -900.43211    -897.51388    1000.000       1.594
    76   7872.65    -900.58995    -897.53721    1000.000       2.920
    77   7576.95    -900.44827    -897.51019    1000.000       4.572
    78   7523.17    -900.41604    -897.49882    1000.000       4.577
    79   7872.58    -900.59132    -897.53861    1000.000       3.035
    80   7591.71    -900.45967    -897.51587    1000.000       1.882
    81   7158.97    -900.27810    -897.50210    1000.000       1.065
    82   7138.61    -900.26993    -897.50183    1000.000       0.679
    83   7542.58    -900.43967    -897.51493    1000.000       0.973
    84   7826.93    -900.57324    -897.53823    1000.000       2.077
    85   7471.88    -900.39989    -897.50256    1000.000       3.461
    86   7471.07    -900.40344    -897.50642    1000.000       3.089
    87   7771.24    -900.55099    -897.53757    1000.000       1.477
    88   7436.00    -900.39747    -897.51405    1000.000       0.396
    89   7026.74    -900.22640    -897.50168    1000.000      -0.281
    90   7064.17    -900.24181    -897.50257    1000.000      -0.429
    91   7510.45    -900.42921    -897.51692    1000.000       0.169
    92   7785.06    -900.55780    -897.53903    1000.000       1.605
    93   7453.00    -900.38673    -897.49672    1000.000       3.244
    94   7559.28    -900.44459    -897.51337    1000.000       3.030
    95   7862.85    -900.58599    -897.53705    1000.000       1.791
    96   7531.59    -900.43427    -897.51378    1000.000       1.071
    97   7166.50    -900.28144    -897.50252    1000.000       0.710
    98   7241.62    -900.31197    -897.50392    1000.000       0.837
    99   7687.11    -900.49968    -897.51889    1000.000       1.645
   100   7910.75    -900.60732    -897.53981    1000.000       3.186
