# Step     T (K)     E_KS (eV)    E_tot (eV)   Vol (A^3)    P (kBar)
     1  13797.49    -900.60275    -895.25257    1000.000       5.660
     2  13778.96    -900.59411    -895.25112    1000.000       6.245
     3  13763.93    -900.58828    -895.25111    1000.000       6.579
     4  13757.39    -900.58705    -895.25242    1000.000       6.636
     5  13731.95    -900.57665    -895.25188    1000.000       6.564
     6  13709.87    -900.56697    -895.25076    1000.000       6.497
     7  13733.18    -900.57548    -895.25024    1000.000       6.494
     8  13783.87    -900.59704    -895.25214    1000.000       6.607
     9  13810.98    -900.60527    -895.24986    1000.000       6.693
    10  13783.30    -900.58957    -895.24489    1000.000       6.746
    11  13686.01    -900.55482    -895.24787    1000.000       6.540
    12  13418.37    -900.45710    -895.25393    1000.000       6.430
    13  12787.01    -900.22259    -895.26424    1000.000       6.752
    14  11641.24    -899.78501    -895.27095    1000.000       7.513
    15   9830.35    -899.08120    -895.26934    1000.000       9.131
    16   7490.37    -898.15891    -895.25441    1000.000      10.639
    17   5526.01    -897.36961    -895.22682    1000.000      10.747
    18   5208.62    -897.27311    -895.25339    1000.000       8.519
    19   6729.73    -897.89935    -895.28979    1000.000       6.161
    20   9163.47    -898.87752    -895.32425    1000.000       4.500
    21  11414.51    -899.78263    -895.35648    1000.000       3.582
    22  12539.04    -900.22698    -895.36478    1000.000       2.925
    23  12233.50    -900.09633    -895.35261    1000.000       2.247
    24  10898.46    -899.55684    -895.33080    1000.000       1.462
    25   9332.06    -898.92190    -895.30326    1000.000       0.642
    26   8438.96    -898.55106    -895.27872    1000.000      -0.152
    27   8803.66    -898.70864    -895.29489    1000.000      -0.518
    28  10370.80    -899.32282    -895.30138    1000.000      -0.139
    29  12731.86    -900.25787    -895.32090    1000.000       1.400
    30  14899.69    -901.17528    -895.39770    1000.000       5.056
    31  14274.19    -901.03973    -895.50470    1000.000      12.116
    32  10832.26    -899.32960    -895.12923    1000.000      19.221
    33  13197.30    -900.65294    -895.53549    1000.000      11.939
    34  15537.55    -901.53832    -895.51340    1000.000       3.464
    35  13191.49    -900.49349    -895.37829    1000.000      -0.091
    36  10036.95    -899.23757    -895.34559    1000.000      -2.966
    37   7595.49    -898.28604    -895.34077    1000.000      -5.126
    38   6088.27    -897.70008    -895.33926    1000.000      -6.475
    39   5506.26    -897.47014    -895.33500    1000.000      -7.136
    40   5813.41    -897.58686    -895.33263    1000.000      -7.112
    41   6827.59    -897.99186    -895.34436    1000.000      -6.194
    42   7835.93    -898.42326    -895.38476    1000.000      -3.870
    43   7720.41    -898.35452    -895.36081    1000.000       0.059
    44   8269.51    -898.45206    -895.24543    1000.000       1.911
    45  11193.02    -899.74109    -895.40083    1000.000      -0.363
    46  12754.39    -900.38078    -895.43508    1000.000      -0.032
    47  10342.35    -899.49096    -895.48056    1000.000       4.374
    48   7198.75    -897.78344    -894.99202    1000.000       7.500
    49   9493.26    -899.12909    -895.44794    1000.000      -0.239
    50   9727.35    -899.08737    -895.31545    1000.000      -3.533
    51   8272.50    -898.46783    -895.26004    1000.000      -4.788
    52   7250.90    -898.06904    -895.25740    1000.000      -5.287
    53   6798.22    -897.92065    -895.28454    1000.000      -4.468
    54   5870.50    -897.60769    -895.33131    1000.000      -1.840
    55   3841.78    -896.71111    -895.22140    1000.000       1.725
    56   3833.33    -896.73240    -895.24597    1000.000       0.662
    57   5475.46    -897.44170    -895.31851    1000.000      -3.049
    58   6019.95    -897.60266    -895.26834    1000.000      -4.787
    59   6371.80    -897.71461    -895.24385    1000.000      -5.594
    60   7476.83    -898.14632    -895.24707    1000.000      -5.479
    61   9153.71    -898.85062    -895.30113    1000.000      -3.706
    62   9207.54    -899.00991    -895.43955    1000.000       1.216
    63   7097.37    -897.71994    -894.96783    1000.000       7.881
    64  10144.64    -899.41778    -895.48404    1000.000       3.112
    65  11875.95    -900.01733    -895.41225    1000.000       1.384
    66   9300.02    -898.95519    -895.34896    1000.000       3.746
    67   6428.66    -897.68095    -895.18814    1000.000       4.396
    68   6505.47    -897.88026    -895.35766    1000.000      -0.214
    69   6292.85    -897.77150    -895.33135    1000.000      -3.628
    70   5039.71    -897.24820    -895.29398    1000.000      -5.406
    71   3954.75    -896.81603    -895.28251    1000.000      -6.600
    72   3575.40    -896.66494    -895.27853    1000.000      -7.279
    73   4043.39    -896.84334    -895.27545    1000.000      -7.420
    74   5421.39    -897.37006    -895.26784    1000.000      -6.948
    75   7757.27    -898.26738    -895.25938    1000.000      -5.546
    76  10739.28    -899.45783    -895.29351    1000.000      -2.446
    77  12588.50    -900.28893    -895.40754    1000.000       3.791
    78  10834.90    -899.49751    -895.29611    1000.000      12.474
    79   9627.67    -898.94042    -895.20715    1000.000      12.992
    80  10805.39    -899.56378    -895.37383    1000.000       5.638
    81  10008.10    -899.19506    -895.31427    1000.000       0.804
    82   7756.42    -898.28476    -895.27709    1000.000      -2.334
    83   5528.38    -897.41123    -895.26752    1000.000      -4.665
    84   3920.91    -896.78774    -895.26735    1000.000      -6.249
    85   3103.50    -896.47231    -895.26888    1000.000      -7.166
    86   3113.31    -896.47696    -895.26973    1000.000      -7.486
    87   3939.48    -896.79917    -895.27158    1000.000      -7.140
    88   5435.53    -897.39189    -895.28418    1000.000      -5.895
    89   6943.52    -898.02099    -895.32854    1000.000      -3.204
    90   7126.88    -898.08862    -895.32507    1000.000       1.521
    91   7945.34    -898.22104    -895.14011    1000.000       4.452
    92  11807.69    -899.99469    -895.41608    1000.000       2.306
    93  11269.67    -900.04295    -895.67297    1000.000       5.591
    94   4372.49    -896.23914    -894.54364    1000.000      13.945
    95   9230.26    -899.17434    -895.59517    1000.000      -0.396
    96   9422.24    -898.95845    -895.30483    1000.000      -3.614
    97   7211.08    -898.04657    -895.25037    1000.000      -4.628
    98   5771.52    -897.49419    -895.25619    1000.000      -5.370
    99   5299.79    -897.32511    -895.27004    1000.000      -5.333
   100   5486.80    -897.41050    -895.28291    1000.000      -4.519
